Angle (deg),Magnitude (dB),Phase (deg)
0.0,-4.27202,-4.27202
0.1,-4.27203,-4.27203
0.2,-4.27206,-4.27206
0.3,-4.27212,-4.27212
0.4,-4.27219,-4.27219
0.5,-4.27228,-4.27228
0.6,-4.2724,-4.2724
0.7,-4.27254,-4.27254
0.8,-4.27269,-4.27269
0.9,-4.27287,-4.27287
1.0,-4.27307,-4.27307
1.1,-4.27329,-4.27329
1.2,-4.27354,-4.27354
1.3,-4.2738,-4.2738
1.4,-4.27408,-4.27408
1.5,-4.27439,-4.27439
1.6,-4.27471,-4.27471
1.7,-4.27506,-4.27506
1.8,-4.27543,-4.27543
1.9,-4.27582,-4.27582
2.0,-4.27623,-4.27623
2.1,-4.27666,-4.27666
2.2,-4.27711,-4.27711
2.3,-4.27759,-4.27759
2.4,-4.27808,-4.27808
2.5,-4.2786,-4.2786
2.6,-4.27914,-4.27914
2.7,-4.2797,-4.2797
2.8,-4.28028,-4.28028
2.9,-4.28088,-4.28088
3.0,-4.2815,-4.2815
3.1,-4.28214,-4.28214
3.2,-4.28281,-4.28281
3.3,-4.28349,-4.28349
3.4,-4.2842,-4.2842
3.5,-4.28493,-4.28493
3.6,-4.28568,-4.28568
3.7,-4.28645,-4.28645
3.8,-4.28724,-4.28724
3.9,-4.28806,-4.28806
4.0,-4.28889,-4.28889
4.1,-4.28975,-4.28975
4.2,-4.29063,-4.29063
4.3,-4.29153,-4.29153
4.4,-4.29245,-4.29245
4.5,-4.29339,-4.29339
4.6,-4.29435,-4.29435
4.7,-4.29534,-4.29534
4.8,-4.29634,-4.29634
4.9,-4.29737,-4.29737
5.0,-4.29842,-4.29842
5.1,-4.29949,-4.29949
5.2,-4.30059,-4.30059
5.3,-4.3017,-4.3017
5.4,-4.30284,-4.30284
5.5,-4.304,-4.304
5.6,-4.30518,-4.30518
5.7,-4.30638,-4.30638
5.8,-4.3076,-4.3076
5.9,-4.30885,-4.30885
6.0,-4.31011,-4.31011
6.1,-4.3114,-4.3114
6.2,-4.31271,-4.31271
6.3,-4.31404,-4.31404
6.4,-4.3154,-4.3154
6.5,-4.31677,-4.31677
6.6,-4.31817,-4.31817
6.7,-4.31959,-4.31959
6.8,-4.32103,-4.32103
6.9,-4.3225,-4.3225
7.0,-4.32398,-4.32398
7.1,-4.32549,-4.32549
7.2,-4.32702,-4.32702
7.3,-4.32858,-4.32858
7.4,-4.33015,-4.33015
7.5,-4.33175,-4.33175
7.6,-4.33337,-4.33337
7.7,-4.33501,-4.33501
7.8,-4.33667,-4.33667
7.9,-4.33836,-4.33836
8.0,-4.34007,-4.34007
8.1,-4.3418,-4.3418
8.2,-4.34355,-4.34355
8.3,-4.34533,-4.34533
8.4,-4.34713,-4.34713
8.5,-4.34895,-4.34895
8.6,-4.35079,-4.35079
8.7,-4.35266,-4.35266
8.8,-4.35455,-4.35455
8.9,-4.35646,-4.35646
9.0,-4.3584,-4.3584
9.1,-4.36036,-4.36036
9.2,-4.36234,-4.36234
9.3,-4.36434,-4.36434
9.4,-4.36637,-4.36637
9.5,-4.36842,-4.36842
9.6,-4.37049,-4.37049
9.7,-4.37259,-4.37259
9.8,-4.37471,-4.37471
9.9,-4.37685,-4.37685
10.0,-4.37901,-4.37901
10.1,-4.3812,-4.3812
10.2,-4.38342,-4.38342
10.3,-4.38565,-4.38565
10.4,-4.38791,-4.38791
10.5,-4.39019,-4.39019
10.6,-4.3925,-4.3925
10.7,-4.39483,-4.39483
10.8,-4.39718,-4.39718
10.9,-4.39956,-4.39956
11.0,-4.40196,-4.40196
11.1,-4.40439,-4.40439
11.2,-4.40683,-4.40683
11.3,-4.40931,-4.40931
11.4,-4.4118,-4.4118
11.5,-4.41432,-4.41432
11.6,-4.41687,-4.41687
11.7,-4.41944,-4.41944
11.8,-4.42203,-4.42203
11.9,-4.42465,-4.42465
12.0,-4.42729,-4.42729
12.1,-4.42995,-4.42995
12.2,-4.43264,-4.43264
12.3,-4.43536,-4.43536
12.4,-4.4381,-4.4381
12.5,-4.44086,-4.44086
12.6,-4.44365,-4.44365
12.7,-4.44646,-4.44646
12.8,-4.4493,-4.4493
12.9,-4.45216,-4.45216
13.0,-4.45505,-4.45505
13.1,-4.45796,-4.45796
13.2,-4.4609,-4.4609
13.3,-4.46386,-4.46386
13.4,-4.46685,-4.46685
13.5,-4.46986,-4.46986
13.6,-4.4729,-4.4729
13.7,-4.47596,-4.47596
13.8,-4.47905,-4.47905
13.9,-4.48217,-4.48217
14.0,-4.48531,-4.48531
14.1,-4.48847,-4.48847
14.2,-4.49166,-4.49166
14.3,-4.49488,-4.49488
14.4,-4.49812,-4.49812
14.5,-4.50139,-4.50139
14.6,-4.50469,-4.50469
14.7,-4.50801,-4.50801
14.8,-4.51135,-4.51135
14.9,-4.51473,-4.51473
15.0,-4.51813,-4.51813
15.1,-4.52155,-4.52155
15.2,-4.52501,-4.52501
15.3,-4.52849,-4.52849
15.4,-4.53199,-4.53199
15.5,-4.53552,-4.53552
15.6,-4.53908,-4.53908
15.7,-4.54267,-4.54267
15.8,-4.54628,-4.54628
15.9,-4.54992,-4.54992
16.0,-4.55359,-4.55359
16.1,-4.55728,-4.55728
16.2,-4.56101,-4.56101
16.3,-4.56475,-4.56475
16.4,-4.56853,-4.56853
16.5,-4.57234,-4.57234
16.6,-4.57617,-4.57617
16.7,-4.58003,-4.58003
16.8,-4.58391,-4.58391
16.9,-4.58783,-4.58783
17.0,-4.59177,-4.59177
17.1,-4.59574,-4.59574
17.2,-4.59974,-4.59974
17.3,-4.60377,-4.60377
17.4,-4.60783,-4.60783
17.5,-4.61191,-4.61191
17.6,-4.61602,-4.61602
17.7,-4.62017,-4.62017
17.8,-4.62434,-4.62434
17.9,-4.62854,-4.62854
18.0,-4.63276,-4.63276
18.1,-4.63702,-4.63702
18.2,-4.64131,-4.64131
18.3,-4.64562,-4.64562
18.4,-4.64997,-4.64997
18.5,-4.65434,-4.65434
18.6,-4.65875,-4.65875
18.7,-4.66318,-4.66318
18.8,-4.66765,-4.66765
18.9,-4.67214,-4.67214
19.0,-4.67666,-4.67666
19.1,-4.68122,-4.68122
19.2,-4.6858,-4.6858
19.3,-4.69042,-4.69042
19.4,-4.69506,-4.69506
19.5,-4.69974,-4.69974
19.6,-4.70444,-4.70444
19.7,-4.70918,-4.70918
19.8,-4.71395,-4.71395
19.9,-4.71875,-4.71875
20.0,-4.72358,-4.72358
20.1,-4.72844,-4.72844
20.2,-4.73333,-4.73333
20.3,-4.73826,-4.73826
20.4,-4.74321,-4.74321
20.5,-4.7482,-4.7482
20.6,-4.75322,-4.75322
20.7,-4.75827,-4.75827
20.8,-4.76335,-4.76335
20.9,-4.76847,-4.76847
21.0,-4.77362,-4.77362
21.1,-4.7788,-4.7788
21.2,-4.78401,-4.78401
21.3,-4.78926,-4.78926
21.4,-4.79454,-4.79454
21.5,-4.79985,-4.79985
21.6,-4.80519,-4.80519
21.7,-4.81057,-4.81057
21.8,-4.81599,-4.81599
21.9,-4.82143,-4.82143
22.0,-4.82691,-4.82691
22.1,-4.83242,-4.83242
22.2,-4.83797,-4.83797
22.3,-4.84355,-4.84355
22.4,-4.84917,-4.84917
22.5,-4.85482,-4.85482
22.6,-4.8605,-4.8605
22.7,-4.86622,-4.86622
22.8,-4.87198,-4.87198
22.9,-4.87777,-4.87777
23.0,-4.88359,-4.88359
23.1,-4.88945,-4.88945
23.2,-4.89535,-4.89535
23.3,-4.90128,-4.90128
23.4,-4.90725,-4.90725
23.5,-4.91325,-4.91325
23.6,-4.91929,-4.91929
23.7,-4.92536,-4.92536
23.8,-4.93148,-4.93148
23.9,-4.93762,-4.93762
24.0,-4.94381,-4.94381
24.1,-4.95003,-4.95003
24.2,-4.95629,-4.95629
24.3,-4.96259,-4.96259
24.4,-4.96892,-4.96892
24.5,-4.97529,-4.97529
24.6,-4.9817,-4.9817
24.7,-4.98815,-4.98815
24.8,-4.99464,-4.99464
24.9,-5.00116,-5.00116
25.0,-5.00772,-5.00772
25.1,-5.01432,-5.01432
25.2,-5.02096,-5.02096
25.3,-5.02764,-5.02764
25.4,-5.03436,-5.03436
25.5,-5.04112,-5.04112
25.6,-5.04792,-5.04792
25.7,-5.05475,-5.05475
25.8,-5.06163,-5.06163
25.9,-5.06855,-5.06855
26.0,-5.07551,-5.07551
26.1,-5.0825,-5.0825
26.2,-5.08954,-5.08954
26.3,-5.09662,-5.09662
26.4,-5.10374,-5.10374
26.5,-5.11091,-5.11091
26.6,-5.11811,-5.11811
26.7,-5.12536,-5.12536
26.8,-5.13264,-5.13264
26.9,-5.13997,-5.13997
27.0,-5.14735,-5.14735
27.1,-5.15476,-5.15476
27.2,-5.16222,-5.16222
27.3,-5.16972,-5.16972
27.4,-5.17726,-5.17726
27.5,-5.18485,-5.18485
27.6,-5.19248,-5.19248
27.7,-5.20016,-5.20016
27.8,-5.20787,-5.20787
27.9,-5.21564,-5.21564
28.0,-5.22345,-5.22345
28.1,-5.2313,-5.2313
28.2,-5.2392,-5.2392
28.3,-5.24714,-5.24714
28.4,-5.25513,-5.25513
28.5,-5.26316,-5.26316
28.6,-5.27125,-5.27125
28.7,-5.27937,-5.27937
28.8,-5.28755,-5.28755
28.9,-5.29577,-5.29577
29.0,-5.30403,-5.30403
29.1,-5.31235,-5.31235
29.2,-5.32071,-5.32071
29.3,-5.32912,-5.32912
29.4,-5.33758,-5.33758
29.5,-5.34608,-5.34608
29.6,-5.35464,-5.35464
29.7,-5.36324,-5.36324
29.8,-5.37189,-5.37189
29.9,-5.3806,-5.3806
30.0,-5.38935,-5.38935
30.1,-5.39815,-5.39815
30.2,-5.407,-5.407
30.3,-5.4159,-5.4159
30.4,-5.42486,-5.42486
30.5,-5.43386,-5.43386
30.6,-5.44291,-5.44291
30.7,-5.45202,-5.45202
30.8,-5.46118,-5.46118
30.9,-5.47039,-5.47039
31.0,-5.47965,-5.47965
31.1,-5.48897,-5.48897
31.2,-5.49834,-5.49834
31.3,-5.50776,-5.50776
31.4,-5.51724,-5.51724
31.5,-5.52677,-5.52677
31.6,-5.53635,-5.53635
31.7,-5.54599,-5.54599
31.8,-5.55569,-5.55569
31.9,-5.56543,-5.56543
32.0,-5.57524,-5.57524
32.1,-5.5851,-5.5851
32.2,-5.59502,-5.59502
32.3,-5.60499,-5.60499
32.4,-5.61502,-5.61502
32.5,-5.62511,-5.62511
32.6,-5.63526,-5.63526
32.7,-5.64546,-5.64546
32.8,-5.65572,-5.65572
32.9,-5.66604,-5.66604
33.0,-5.67642,-5.67642
33.1,-5.68686,-5.68686
33.2,-5.69736,-5.69736
33.3,-5.70792,-5.70792
33.4,-5.71854,-5.71854
33.5,-5.72922,-5.72922
33.6,-5.73996,-5.73996
33.7,-5.75076,-5.75076
33.8,-5.76162,-5.76162
33.9,-5.77255,-5.77255
34.0,-5.78354,-5.78354
34.1,-5.79459,-5.79459
34.2,-5.80571,-5.80571
34.3,-5.81689,-5.81689
34.4,-5.82814,-5.82814
34.5,-5.83945,-5.83945
34.6,-5.85082,-5.85082
34.7,-5.86226,-5.86226
34.8,-5.87377,-5.87377
34.9,-5.88534,-5.88534
35.0,-5.89698,-5.89698
35.1,-5.90869,-5.90869
35.2,-5.92046,-5.92046
35.3,-5.93231,-5.93231
35.4,-5.94422,-5.94422
35.5,-5.9562,-5.9562
35.6,-5.96825,-5.96825
35.7,-5.98037,-5.98037
35.8,-5.99256,-5.99256
35.9,-6.00482,-6.00482
36.0,-6.01715,-6.01715
36.1,-6.02956,-6.02956
36.2,-6.04204,-6.04204
36.3,-6.05459,-6.05459
36.4,-6.06721,-6.06721
36.5,-6.07991,-6.07991
36.6,-6.09268,-6.09268
36.7,-6.10553,-6.10553
36.8,-6.11845,-6.11845
36.9,-6.13145,-6.13145
37.0,-6.14452,-6.14452
37.1,-6.15767,-6.15767
37.2,-6.1709,-6.1709
37.3,-6.18421,-6.18421
37.4,-6.19759,-6.19759
37.5,-6.21105,-6.21105
37.6,-6.2246,-6.2246
37.7,-6.23822,-6.23822
37.8,-6.25193,-6.25193
37.9,-6.26571,-6.26571
38.0,-6.27958,-6.27958
38.1,-6.29353,-6.29353
38.2,-6.30756,-6.30756
38.3,-6.32168,-6.32168
38.4,-6.33588,-6.33588
38.5,-6.35017,-6.35017
38.6,-6.36454,-6.36454
38.7,-6.379,-6.379
38.8,-6.39354,-6.39354
38.9,-6.40818,-6.40818
39.0,-6.4229,-6.4229
39.1,-6.43771,-6.43771
39.2,-6.4526,-6.4526
39.3,-6.46759,-6.46759
39.4,-6.48267,-6.48267
39.5,-6.49784,-6.49784
39.6,-6.5131,-6.5131
39.7,-6.52846,-6.52846
39.8,-6.54391,-6.54391
39.9,-6.55945,-6.55945
40.0,-6.57509,-6.57509
40.1,-6.59082,-6.59082
40.2,-6.60665,-6.60665
40.3,-6.62258,-6.62258
40.4,-6.6386,-6.6386
40.5,-6.65472,-6.65472
40.6,-6.67095,-6.67095
40.7,-6.68727,-6.68727
40.8,-6.70369,-6.70369
40.9,-6.72022,-6.72022
41.0,-6.73684,-6.73684
41.1,-6.75358,-6.75358
41.2,-6.77041,-6.77041
41.3,-6.78735,-6.78735
41.4,-6.8044,-6.8044
41.5,-6.82155,-6.82155
41.6,-6.83881,-6.83881
41.7,-6.85618,-6.85618
41.8,-6.87365,-6.87365
41.9,-6.89124,-6.89124
42.0,-6.90894,-6.90894
42.1,-6.92675,-6.92675
42.2,-6.94467,-6.94467
42.3,-6.96271,-6.96271
42.4,-6.98086,-6.98086
42.5,-6.99913,-6.99913
42.6,-7.01751,-7.01751
42.7,-7.03601,-7.03601
42.8,-7.05463,-7.05463
42.9,-7.07337,-7.07337
43.0,-7.09223,-7.09223
43.1,-7.11121,-7.11121
43.2,-7.13032,-7.13032
43.3,-7.14955,-7.14955
43.4,-7.1689,-7.1689
43.5,-7.18838,-7.18838
43.6,-7.20798,-7.20798
43.7,-7.22772,-7.22772
43.8,-7.24758,-7.24758
43.9,-7.26758,-7.26758
44.0,-7.2877,-7.2877
44.1,-7.30796,-7.30796
44.2,-7.32835,-7.32835
44.3,-7.34888,-7.34888
44.4,-7.36954,-7.36954
44.5,-7.39034,-7.39034
44.6,-7.41128,-7.41128
44.7,-7.43235,-7.43235
44.8,-7.45357,-7.45357
44.9,-7.47494,-7.47494
45.0,-7.49644,-7.49644
45.1,-7.51809,-7.51809
45.2,-7.53989,-7.53989
45.3,-7.56183,-7.56183
45.4,-7.58393,-7.58393
45.5,-7.60617,-7.60617
45.6,-7.62857,-7.62857
45.7,-7.65112,-7.65112
45.8,-7.67382,-7.67382
45.9,-7.69669,-7.69669
46.0,-7.7197,-7.7197
46.1,-7.74288,-7.74288
46.2,-7.76622,-7.76622
46.3,-7.78972,-7.78972
46.4,-7.81339,-7.81339
46.5,-7.83722,-7.83722
46.6,-7.86122,-7.86122
46.7,-7.88539,-7.88539
46.8,-7.90972,-7.90972
46.9,-7.93423,-7.93423
47.0,-7.95892,-7.95892
47.1,-7.98377,-7.98377
47.2,-8.00881,-8.00881
47.3,-8.03403,-8.03403
47.4,-8.05942,-8.05942
47.5,-8.085,-8.085
47.6,-8.11077,-8.11077
47.7,-8.13672,-8.13672
47.8,-8.16286,-8.16286
47.9,-8.18919,-8.18919
48.0,-8.21571,-8.21571
48.1,-8.24243,-8.24243
48.2,-8.26934,-8.26934
48.3,-8.29645,-8.29645
48.4,-8.32377,-8.32377
48.5,-8.35128,-8.35128
48.6,-8.379,-8.379
48.7,-8.40693,-8.40693
48.8,-8.43507,-8.43507
48.9,-8.46342,-8.46342
49.0,-8.49198,-8.49198
49.1,-8.52076,-8.52076
49.2,-8.54976,-8.54976
49.3,-8.57898,-8.57898
49.4,-8.60843,-8.60843
49.5,-8.6381,-8.6381
49.6,-8.668,-8.668
49.7,-8.69812,-8.69812
49.8,-8.72849,-8.72849
49.9,-8.75909,-8.75909
50.0,-8.78993,-8.78993
50.1,-8.82101,-8.82101
50.2,-8.85234,-8.85234
50.3,-8.88392,-8.88392
50.4,-8.91574,-8.91574
50.5,-8.94782,-8.94782
50.6,-8.98016,-8.98016
50.7,-9.01276,-9.01276
50.8,-9.04562,-9.04562
50.9,-9.07874,-9.07874
51.0,-9.11214,-9.11214
51.1,-9.1458,-9.1458
51.2,-9.17975,-9.17975
51.3,-9.21397,-9.21397
51.4,-9.24848,-9.24848
51.5,-9.28327,-9.28327
51.6,-9.31835,-9.31835
51.7,-9.35372,-9.35372
51.8,-9.3894,-9.3894
51.9,-9.42537,-9.42537
52.0,-9.46165,-9.46165
52.1,-9.49823,-9.49823
52.2,-9.53514,-9.53514
52.3,-9.57235,-9.57235
52.4,-9.60989,-9.60989
52.5,-9.64775,-9.64775
52.6,-9.68595,-9.68595
52.7,-9.72448,-9.72448
52.8,-9.76334,-9.76334
52.9,-9.80255,-9.80255
53.0,-9.84211,-9.84211
53.1,-9.88202,-9.88202
53.2,-9.92229,-9.92229
53.3,-9.96292,-9.96292
53.4,-10.0039,-10.0039
53.5,-10.0453,-10.0453
53.6,-10.087,-10.087
53.7,-10.1292,-10.1292
53.8,-10.1717,-10.1717
53.9,-10.2146,-10.2146
54.0,-10.2579,-10.2579
54.1,-10.3016,-10.3016
54.2,-10.3458,-10.3458
54.3,-10.3903,-10.3903
54.4,-10.4353,-10.4353
54.5,-10.4807,-10.4807
54.6,-10.5265,-10.5265
54.7,-10.5728,-10.5728
54.8,-10.6196,-10.6196
54.9,-10.6668,-10.6668
55.0,-10.7144,-10.7144
55.1,-10.7626,-10.7626
55.2,-10.8112,-10.8112
55.3,-10.8603,-10.8603
55.4,-10.9099,-10.9099
55.5,-10.96,-10.96
55.6,-11.0106,-11.0106
55.7,-11.0617,-11.0617
55.8,-11.1134,-11.1134
55.9,-11.1656,-11.1656
56.0,-11.2183,-11.2183
56.1,-11.2716,-11.2716
56.2,-11.3255,-11.3255
56.3,-11.3799,-11.3799
56.4,-11.4349,-11.4349
56.5,-11.4905,-11.4905
56.6,-11.5468,-11.5468
56.7,-11.6036,-11.6036
56.8,-11.6611,-11.6611
56.9,-11.7192,-11.7192
57.0,-11.7779,-11.7779
57.1,-11.8373,-11.8373
57.2,-11.8974,-11.8974
57.3,-11.9582,-11.9582
57.4,-12.0197,-12.0197
57.5,-12.0819,-12.0819
57.6,-12.1448,-12.1448
57.7,-12.2084,-12.2084
57.8,-12.2729,-12.2729
57.9,-12.338,-12.338
58.0,-12.404,-12.404
58.1,-12.4708,-12.4708
58.2,-12.5384,-12.5384
58.3,-12.6068,-12.6068
58.4,-12.6761,-12.6761
58.5,-12.7462,-12.7462
58.6,-12.8172,-12.8172
58.7,-12.8892,-12.8892
58.8,-12.962,-12.962
58.9,-13.0359,-13.0359
59.0,-13.1106,-13.1106
59.1,-13.1864,-13.1864
59.2,-13.2632,-13.2632
59.3,-13.341,-13.341
59.4,-13.4199,-13.4199
59.5,-13.4999,-13.4999
59.6,-13.5809,-13.5809
59.7,-13.6631,-13.6631
59.8,-13.7465,-13.7465
59.9,-13.831,-13.831
60.0,-13.9168,-13.9168
60.1,-14.0038,-14.0038
60.2,-14.0921,-14.0921
60.3,-14.1818,-14.1818
60.4,-14.2727,-14.2727
60.5,-14.3651,-14.3651
60.6,-14.4588,-14.4588
60.7,-14.5541,-14.5541
60.8,-14.6508,-14.6508
60.9,-14.7491,-14.7491
61.0,-14.8489,-14.8489
61.1,-14.9504,-14.9504
61.2,-15.0535,-15.0535
61.3,-15.1584,-15.1584
61.4,-15.265,-15.265
61.5,-15.3735,-15.3735
61.6,-15.4838,-15.4838
61.7,-15.5961,-15.5961
61.8,-15.7104,-15.7104
61.9,-15.8267,-15.8267
62.0,-15.9452,-15.9452
62.1,-16.0659,-16.0659
62.2,-16.1888,-16.1888
62.3,-16.3141,-16.3141
62.4,-16.4418,-16.4418
62.5,-16.5721,-16.5721
62.6,-16.7049,-16.7049
62.7,-16.8404,-16.8404
62.8,-16.9788,-16.9788
62.9,-17.12,-17.12
63.0,-17.2642,-17.2642
63.1,-17.4116,-17.4116
63.2,-17.5622,-17.5622
63.3,-17.7163,-17.7163
63.4,-17.8738,-17.8738
63.5,-18.035,-18.035
63.6,-18.2,-18.2
63.7,-18.3691,-18.3691
63.8,-18.5423,-18.5423
63.9,-18.7199,-18.7199
64.0,-18.902,-18.902
64.1,-19.089,-19.089
64.2,-19.2809,-19.2809
64.3,-19.4782,-19.4782
64.4,-19.681,-19.681
64.5,-19.8897,-19.8897
64.6,-20.1045,-20.1045
64.7,-20.3258,-20.3258
64.8,-20.5541,-20.5541
64.9,-20.7896,-20.7896
65.0,-21.0328,-21.0328
65.1,-21.2843,-21.2843
65.2,-21.5445,-21.5445
65.3,-21.8141,-21.8141
65.4,-22.0937,-22.0937
65.5,-22.3839,-22.3839
65.6,-22.6856,-22.6856
65.7,-22.9998,-22.9998
65.8,-23.3273,-23.3273
65.9,-23.6692,-23.6692
66.0,-24.0269,-24.0269
66.1,-24.4018,-24.4018
66.2,-24.7954,-24.7954
66.3,-25.2097,-25.2097
66.4,-25.6468,-25.6468
66.5,-26.1092,-26.1092
66.6,-26.5999,-26.5999
66.7,-27.1224,-27.1224
66.8,-27.6808,-27.6808
66.9,-28.2801,-28.2801
67.0,-28.9265,-28.9265
67.1,-29.6276,-29.6276
67.2,-30.3929,-30.3929
67.3,-31.2347,-31.2347
67.4,-32.169,-32.169
67.5,-33.217,-33.217
67.6,-34.4076,-34.4076
67.7,-35.7812,-35.7812
67.8,-37.3951,-37.3951
67.9,-39.3282,-39.3282
68.0,-41.6696,-41.6696
68.1,-44.3769,-44.3769
68.2,-46.5273,-46.5273
68.3,-45.9192,-45.9192
68.4,-43.297,-43.297
68.5,-40.6464,-40.6464
68.6,-38.4174,-38.4174
68.7,-36.5664,-36.5664
68.8,-35.0032,-35.0032
68.9,-33.6571,-33.6571
69.0,-32.4777,-32.4777
69.1,-31.4294,-31.4294
69.2,-30.4862,-30.4862
69.3,-29.6292,-29.6292
69.4,-28.8438,-28.8438
69.5,-28.1189,-28.1189
69.6,-27.4457,-27.4457
69.7,-26.8172,-26.8172
69.8,-26.2277,-26.2277
69.9,-25.6726,-25.6726
70.0,-25.1478,-25.1478
70.1,-24.6501,-24.6501
70.2,-24.1769,-24.1769
70.3,-23.7255,-23.7255
70.4,-23.2942,-23.2942
70.5,-22.8809,-22.8809
70.6,-22.4843,-22.4843
70.7,-22.103,-22.103
70.8,-21.7356,-21.7356
70.9,-21.3813,-21.3813
71.0,-21.039,-21.039
71.1,-20.7078,-20.7078
71.2,-20.3871,-20.3871
71.3,-20.0761,-20.0761
71.4,-19.7742,-19.7742
71.5,-19.4809,-19.4809
71.6,-19.1955,-19.1955
71.7,-18.9178,-18.9178
71.8,-18.6471,-18.6471
71.9,-18.3832,-18.3832
72.0,-18.1256,-18.1256
72.1,-17.874,-17.874
72.2,-17.6282,-17.6282
72.3,-17.3878,-17.3878
72.4,-17.1526,-17.1526
72.5,-16.9223,-16.9223
72.6,-16.6967,-16.6967
72.7,-16.4756,-16.4756
72.8,-16.2587,-16.2587
72.9,-16.0459,-16.0459
73.0,-15.8371,-15.8371
73.1,-15.632,-15.632
73.2,-15.4305,-15.4305
73.3,-15.2324,-15.2324
73.4,-15.0377,-15.0377
73.5,-14.8461,-14.8461
73.6,-14.6576,-14.6576
73.7,-14.472,-14.472
73.8,-14.2893,-14.2893
73.9,-14.1093,-14.1093
74.0,-13.932,-13.932
74.1,-13.7572,-13.7572
74.2,-13.5848,-13.5848
74.3,-13.4148,-13.4148
74.4,-13.2472,-13.2472
74.5,-13.0817,-13.0817
74.6,-12.9184,-12.9184
74.7,-12.7572,-12.7572
74.8,-12.5979,-12.5979
74.9,-12.4407,-12.4407
75.0,-12.2853,-12.2853
75.1,-12.1318,-12.1318
75.2,-11.98,-11.98
75.3,-11.83,-11.83
75.4,-11.6816,-11.6816
75.5,-11.5349,-11.5349
75.6,-11.3898,-11.3898
75.7,-11.2462,-11.2462
75.8,-11.1041,-11.1041
75.9,-10.9635,-10.9635
76.0,-10.8243,-10.8243
76.1,-10.6864,-10.6864
76.2,-10.55,-10.55
76.3,-10.4148,-10.4148
76.4,-10.2809,-10.2809
76.5,-10.1483,-10.1483
76.6,-10.0169,-10.0169
76.7,-9.88669,-9.88669
76.8,-9.75764,-9.75764
76.9,-9.62973,-9.62973
77.0,-9.50292,-9.50292
77.1,-9.3772,-9.3772
77.2,-9.25255,-9.25255
77.3,-9.12893,-9.12893
77.4,-9.00632,-9.00632
77.5,-8.88472,-8.88472
77.6,-8.76408,-8.76408
77.7,-8.6444,-8.6444
77.8,-8.52565,-8.52565
77.9,-8.40783,-8.40783
78.0,-8.2909,-8.2909
78.1,-8.17485,-8.17485
78.2,-8.05966,-8.05966
78.3,-7.94533,-7.94533
78.4,-7.83183,-7.83183
78.5,-7.71916,-7.71916
78.6,-7.60729,-7.60729
78.7,-7.49621,-7.49621
78.8,-7.38591,-7.38591
78.9,-7.27638,-7.27638
79.0,-7.16761,-7.16761
79.1,-7.05959,-7.05959
79.2,-6.9523,-6.9523
79.3,-6.84573,-6.84573
79.4,-6.73988,-6.73988
79.5,-6.63474,-6.63474
79.6,-6.53029,-6.53029
79.7,-6.42654,-6.42654
79.8,-6.32346,-6.32346
79.9,-6.22106,-6.22106
80.0,-6.11933,-6.11933
80.1,-6.01826,-6.01826
80.2,-5.91784,-5.91784
80.3,-5.81808,-5.81808
80.4,-5.71895,-5.71895
80.5,-5.62047,-5.62047
80.6,-5.52263,-5.52263
80.7,-5.42542,-5.42542
80.8,-5.32883,-5.32883
80.9,-5.23288,-5.23288
81.0,-5.13754,-5.13754
81.1,-5.04283,-5.04283
81.2,-4.94874,-4.94874
81.3,-4.85527,-4.85527
81.4,-4.76241,-4.76241
81.5,-4.67018,-4.67018
81.6,-4.57856,-4.57856
81.7,-4.48755,-4.48755
81.8,-4.39717,-4.39717
81.9,-4.30741,-4.30741
82.0,-4.21827,-4.21827
82.1,-4.12975,-4.12975
82.2,-4.04186,-4.04186
82.3,-3.9546,-3.9546
82.4,-3.86798,-3.86798
82.5,-3.78199,-3.78199
82.6,-3.69664,-3.69664
82.7,-3.61194,-3.61194
82.8,-3.5279,-3.5279
82.9,-3.44451,-3.44451
83.0,-3.36178,-3.36178
83.1,-3.27972,-3.27972
83.2,-3.19834,-3.19834
83.3,-3.11765,-3.11765
83.4,-3.03765,-3.03765
83.5,-2.95835,-2.95835
83.6,-2.87976,-2.87976
83.7,-2.80189,-2.80189
83.8,-2.72475,-2.72475
83.9,-2.64835,-2.64835
84.0,-2.5727,-2.5727
84.1,-2.49781,-2.49781
84.2,-2.4237,-2.4237
84.3,-2.35037,-2.35037
84.4,-2.27783,-2.27783
84.5,-2.20611,-2.20611
84.6,-2.13521,-2.13521
84.7,-2.06515,-2.06515
84.8,-1.99594,-1.99594
84.9,-1.9276,-1.9276
85.0,-1.86014,-1.86014
85.1,-1.79358,-1.79358
85.2,-1.72792,-1.72792
85.3,-1.6632,-1.6632
85.4,-1.59943,-1.59943
85.5,-1.53661,-1.53661
85.6,-1.47478,-1.47478
85.7,-1.41394,-1.41394
85.8,-1.35412,-1.35412
85.9,-1.29533,-1.29533
86.0,-1.23759,-1.23759
86.1,-1.18093,-1.18093
86.2,-1.12535,-1.12535
86.3,-1.07088,-1.07088
86.4,-1.01753,-1.01753
86.5,-0.965335,-0.965335
86.6,-0.914303,-0.914303
86.7,-0.864455,-0.864455
86.8,-0.815812,-0.815812
86.9,-0.768393,-0.768393
87.0,-0.722217,-0.722217
87.1,-0.677304,-0.677304
87.2,-0.633672,-0.633672
87.3,-0.591342,-0.591342
87.4,-0.550332,-0.550332
87.5,-0.510661,-0.510661
87.6,-0.472348,-0.472348
87.7,-0.43541,-0.43541
87.8,-0.399865,-0.399865
87.9,-0.365732,-0.365732
88.0,-0.333027,-0.333027
88.1,-0.301767,-0.301767
88.2,-0.271968,-0.271968
88.3,-0.243646,-0.243646
88.4,-0.216816,-0.216816
88.5,-0.191492,-0.191492
88.6,-0.167688,-0.167688
88.7,-0.145418,-0.145418
88.8,-0.124693,-0.124693
88.9,-0.105526,-0.105526
89.0,-0.0879276,-0.0879276
89.1,-0.0719077,-0.0719077
89.2,-0.0574756,-0.0574756
89.3,-0.0446398,-0.0446398
89.4,-0.0334078,-0.0334078
89.5,-0.0237862,-0.0237862
89.6,-0.0157807,-0.0157807
89.7,-0.00939606,-0.00939606
89.8,-0.004636,-0.004636
89.9,-0.00150337,-0.00150337
90.0,0.0,0.0
